#Time (S)	Lockin (mV)	Temp (V)
65.67	0.805664	2.344971
66.18	0.877121	2.366486
66.71	0.867613	2.374268
67.24	0.873491	2.376857
67.77	0.869363	2.369126
68.30	0.881747	2.370347
68.82	0.878240	2.374970
69.35	0.891202	2.371974
69.88	0.894931	2.366943
70.41	0.880859	2.365131
70.94	0.895774	2.344786
71.46	0.855824	2.321296
71.99	0.849432	2.315045
72.52	0.856667	2.307203
73.05	0.869185	2.293701
73.58	0.874245	2.291889
74.10	0.880682	2.295588
74.63	0.868075	2.288670
75.16	0.881836	2.285341
75.68	0.877121	2.286682
76.20	0.868286	2.290459
76.72	0.871948	2.283745
77.24	0.861694	2.267494
77.76	0.853683	2.249908
78.28	0.856796	2.242088
78.80	0.758469	2.239647
79.33	0.785980	2.227440
79.85	0.846085	2.229156
80.37	0.797379	2.228279
80.89	0.877716	2.223778
81.41	0.876892	2.219048
81.93	0.873825	2.219124
82.45	0.820862	2.222099
82.97	0.880692	2.225418
83.49	0.878494	2.220268
84.01	0.876892	2.216263
84.53	0.865402	2.220840
85.05	0.873322	2.225914
85.57	0.865128	2.224197
86.09	0.866592	2.221413
86.61	0.866684	2.218704
87.13	0.863708	2.222176
87.65	0.863525	2.220078
88.17	0.863892	2.204208
88.69	0.864212	2.186775
89.21	0.863617	2.175407
89.73	0.862061	2.169685
90.25	0.837067	2.163200
90.77	0.854553	2.152939
91.29	0.856979	2.143250
91.81	0.820862	2.143097
92.33	0.861694	2.143593
92.85	0.866821	2.143135
93.37	0.868240	2.134819
93.89	0.869064	2.131767
94.41	0.865631	2.133484
94.93	0.867737	2.137108
95.45	0.867050	2.133560
95.97	0.866135	2.129898
96.49	0.869064	2.130127
97.01	0.870575	2.134628
97.53	0.869064	2.136726
98.05	0.870575	2.133331
98.57	0.879913	2.129478
99.09	0.880371	2.131958
99.61	0.879456	2.136879
100.13	0.880325	2.137070
100.65	0.878403	2.133522
101.17	0.878769	2.130051
101.69	0.877579	2.133789
102.21	0.874649	2.140579
102.73	0.873550	2.139778
103.25	0.871536	2.135506
103.77	0.869888	2.132378
104.29	0.872131	2.138329
104.81	0.876663	2.141685
105.33	0.873688	2.138748
105.85	0.872223	2.134209
106.37	0.870346	2.135048
106.89	0.870071	2.140465
107.41	0.868103	2.141075
107.93	0.867050	2.137718
108.45	0.865082	2.135315
108.97	0.863480	2.138634
109.49	0.860870	2.142220
110.01	0.855652	2.141953
110.53	0.859360	2.138290
111.05	0.858398	2.135811
111.57	0.859818	2.141457
112.09	0.854416	2.143784
112.61	0.859360	2.142029
113.13	0.860504	2.137375
113.65	0.862244	2.138634
114.17	0.865448	2.142525
114.69	0.867599	2.144089
115.21	0.869751	2.140503
115.73	0.872269	2.137718
116.25	0.871353	2.140923
116.77	0.873230	2.145500
117.29	0.876251	2.144508
117.81	0.874695	2.139282
118.33	0.877441	2.137260
118.85	0.877167	2.142601
119.37	0.875885	2.146721
119.89	0.879547	2.142487
120.41	0.876892	2.138977
120.93	0.878311	2.139854
121.45	0.879364	2.144852
121.97	0.878998	2.148628
122.49	0.878036	2.142868
123.01	0.876709	2.139778
123.53	0.876068	2.141724
124.05	0.874924	2.145386
124.57	0.872681	2.149620
125.09	0.872177	2.141457
125.61	0.870758	2.138138
126.13	0.867554	2.143135
126.65	0.867096	2.146263
127.17	0.864349	2.147293
127.69	0.863525	2.140121
128.21	0.862747	2.139587
128.73	0.862564	2.143784
129.25	0.863800	2.149200
129.77	0.862015	2.145386
130.29	0.863571	2.140884
130.81	0.861877	2.138367
131.33	0.863434	2.145958
131.85	0.864120	2.147560
132.37	0.864670	2.144051
132.89	0.865585	2.140007
133.41	0.868149	2.140694
133.93	0.868103	2.146721
134.45	0.868240	2.148590
134.97	0.869476	2.143211
135.49	0.872086	2.139511
136.01	0.873047	2.142372
136.53	0.874512	2.145729
137.05	0.875473	2.147560
137.57	0.877167	2.143135
138.09	0.877487	2.140388
138.61	0.877762	2.142334
139.13	0.877945	2.147255
139.65	0.878769	2.149010
140.17	0.877716	2.143211
140.69	0.876984	2.139397
141.21	0.873550	2.144814
141.73	0.873688	2.146912
142.25	0.874924	2.147636
142.77	0.872772	2.141418
143.29	0.871719	2.140388
143.81	0.866638	2.144470
144.33	0.866364	2.149620
144.85	0.867096	2.146873
145.37	0.864990	2.142677
145.89	0.864807	2.141113
146.41	0.861923	2.146416
146.93	0.861465	2.150307
147.45	0.863525	2.145500
147.97	0.861786	2.141304
148.49	0.864075	2.141190
149.01	0.863159	2.147064
149.53	0.866867	2.148972
150.05	0.867142	2.143555
150.57	0.869247	2.141533
151.09	0.870163	2.142105
151.61	0.871078	2.148437
152.13	0.871902	2.147865
152.65	0.872818	2.143135
153.17	0.874191	2.139931
153.69	0.876892	2.145996
154.21	0.878769	2.149582
154.73	0.879089	2.146683
155.25	0.881561	2.142181
155.77	0.880966	2.141304
156.29	0.881104	2.145996
156.81	0.883118	2.148857
157.33	0.882889	2.144814
157.85	0.880692	2.141151
158.37	0.880463	2.143288
158.89	0.880600	2.148132
159.41	0.879822	2.148552
159.93	0.877396	2.145119
160.45	0.874741	2.140579
160.97	0.872818	2.144775
161.49	0.871674	2.148399
162.01	0.869843	2.146645
162.53	0.867874	2.143898
163.05	0.869202	2.140884
163.57	0.866959	2.146912
164.09	0.867233	2.150383
164.61	0.867096	2.146149
165.13	0.866089	2.142029
165.65	0.866135	2.143288
166.17	0.865952	2.147789
166.69	0.867462	2.148323
167.21	0.867599	2.144241
167.73	0.868103	2.141533
168.25	0.868378	2.145805
168.77	0.869156	2.149925
169.29	0.870529	2.147903
169.81	0.870255	2.142525
170.33	0.873138	2.141457
170.85	0.873550	2.149200
171.37	0.874649	2.150383
171.89	0.874741	2.146606
172.41	0.877762	2.141800
172.93	0.878357	2.143898
173.45	0.877213	2.147942
173.97	0.881378	2.149162
174.49	0.879913	2.145882
175.01	0.878723	2.142220
175.53	0.880737	2.143936
176.05	0.880417	2.149391
176.57	0.878357	2.149620
177.09	0.877808	2.144623
177.61	0.876068	2.144012
178.13	0.874832	2.147293
178.65	0.875061	2.151222
179.17	0.872223	2.149658
179.69	0.870575	2.143745
180.21	0.869659	2.142220
180.73	0.869476	2.147827
181.25	0.866638	2.150917
181.77	0.865219	2.147102
182.29	0.863708	2.143860
182.81	0.864624	2.145195
183.33	0.862930	2.149391
183.85	0.863937	2.151146
184.37	0.863297	2.146645
184.89	0.861877	2.142258
185.41	0.862747	2.144737
185.93	0.862610	2.149010
186.45	0.863480	2.151871
186.97	0.862930	2.146187
187.49	0.865402	2.142525
188.01	0.865219	2.145615
188.53	0.867645	2.151375
189.05	0.869156	2.148895
189.57	0.869568	2.145233
190.09	0.870758	2.141685
190.61	0.870621	2.146873
191.13	0.873001	2.151184
191.65	0.874146	2.148552
192.17	0.874649	2.144661
192.69	0.875061	2.142830
193.21	0.874741	2.147865
193.73	0.876480	2.152138
194.25	0.875336	2.149963
194.77	0.871124	2.143936
195.29	0.873505	2.144051
195.81	0.878769	2.147179
196.33	0.883484	2.148590
196.85	0.879776	2.147789
197.37	0.877899	2.144279
197.89	0.877625	2.144127
198.41	0.872452	2.148399
198.93	0.864578	2.149773
199.45	0.867416	2.146263
199.97	0.865036	2.143364
200.49	0.867004	2.146606
201.01	0.862244	2.149086
201.53	0.860825	2.150459
202.05	0.862885	2.145233
202.57	0.865448	2.142410
203.09	0.865128	2.147102
203.61	0.863937	2.151871
204.13	0.864899	2.153664
204.65	0.864258	2.144775
205.17	0.862564	2.142715
205.70	0.879227	2.147675
206.22	0.878082	2.142181
206.74	0.874008	2.143135
207.26	0.871536	2.150002
207.78	0.863983	2.150574
208.30	0.852356	2.145271
208.82	0.846176	2.143631
209.34	0.858994	2.145691
209.86	0.877167	2.151527
210.38	0.874329	2.148857
210.90	0.874512	2.144165
211.42	0.873001	2.142258
211.94	0.872498	2.147484
212.46	0.871170	2.151489
212.98	0.868469	2.148743
213.50	0.868195	2.145653
214.02	0.865952	2.142372
214.54	0.865768	2.150955
215.06	0.862976	2.151146
215.58	0.864075	2.148285
216.10	0.863663	2.144165
216.62	0.862610	2.144699
217.14	0.862289	2.149086
217.66	0.861374	2.152328
218.18	0.858078	2.147179
218.70	0.858170	2.144737
219.22	0.859726	2.144547
219.74	0.860229	2.148705
220.26	0.864441	2.151070
220.78	0.864349	2.147484
221.30	0.864853	2.143059
221.82	0.865402	2.144890
222.34	0.864716	2.148857
222.86	0.869202	2.151375
223.38	0.866592	2.146263
223.90	0.869202	2.142601
224.42	0.871536	2.144547
224.94	0.870758	2.149544
225.46	0.872955	2.150078
225.98	0.874100	2.144852
226.50	0.875931	2.143440
227.02	0.874924	2.146339
227.54	0.875748	2.151184
228.06	0.874603	2.152672
228.58	0.873962	2.146835
229.10	0.872681	2.142830
229.62	0.871857	2.147560
230.14	0.872040	2.150841
230.66	0.870117	2.151604
231.18	0.868011	2.145081
231.70	0.862015	2.142601
232.23	0.875198	2.144547
232.74	0.876160	2.143784
233.26	0.877991	2.144394
233.78	0.877304	2.149773
234.30	0.877716	2.153244
234.82	0.877396	2.148552
235.34	0.877075	2.143211
235.86	0.875702	2.145157
236.38	0.872498	2.147522
236.90	0.874649	2.153625
237.42	0.871490	2.146606
237.94	0.870712	2.143745
238.46	0.869614	2.144508
238.98	0.866180	2.148666
239.50	0.866684	2.150192
240.02	0.865540	2.147827
240.54	0.865677	2.144051
241.06	0.865768	2.145309
241.58	0.864990	2.149506
242.10	0.865814	2.151680
242.62	0.865860	2.148285
243.14	0.865723	2.144432
243.66	0.866043	2.146683
244.18	0.866272	2.151489
244.70	0.866730	2.152863
245.22	0.868469	2.146034
245.74	0.868790	2.144241
246.26	0.872086	2.147751
246.78	0.873962	2.151527
247.30	0.874329	2.153244
247.82	0.874695	2.148972
248.34	0.874086	2.147847
248.86	0.877075	2.147522
249.38	0.877396	2.150383
249.90	0.878906	2.150612
250.42	0.882385	2.148018
250.94	0.880051	2.144127
251.46	0.881378	2.144432
251.98	0.881012	2.153702
252.50	0.881241	2.149696
253.02	0.878586	2.146187
253.54	0.878952	2.145462
254.06	0.878586	2.147026
254.58	0.875748	2.150002
255.10	0.875839	2.150307
255.63	0.872858	2.148398
256.15	0.879868	2.152443
256.67	0.880188	2.149849
257.19	0.883347	2.145844
257.71	0.882202	2.146034
258.23	0.880875	2.149734
258.75	0.875410	2.152415
259.28	0.882019	2.149086
259.80	0.866089	2.151070
260.32	0.866821	2.147636
260.84	0.865723	2.145386
261.36	0.860962	2.143860
261.89	0.870667	2.148514
262.42	0.862885	2.146225
262.94	0.879593	2.147217
263.46	0.877396	2.145653
263.98	0.881012	2.142944
264.50	0.877716	2.149048
265.02	0.877029	2.153664
265.54	0.876663	2.150154
266.06	0.875198	2.145996
266.58	0.873459	2.144661
267.10	0.869934	2.148972
267.62	0.864258	2.152178
268.14	0.866730	2.149467
268.66	0.864853	2.145081
269.18	0.861511	2.146606
269.70	0.861923	2.150459
270.22	0.854507	2.152557
270.74	0.863434	2.150650
271.26	0.866409	2.150497
271.78	0.867737	2.145386
272.30	0.863983	2.150040
272.82	0.869659	2.154922
273.35	0.873093	2.147217
273.86	0.871765	2.153130
274.38	0.872131	2.152214
274.90	0.867004	2.146797
275.42	0.868881	2.144623
275.94	0.866867	2.149658
276.46	0.866135	2.151833
276.98	0.866318	2.149696
277.50	0.866043	2.146492
278.02	0.863525	2.146950
278.54	0.865082	2.150116
279.06	0.865356	2.153282
279.58	0.864807	2.146912
280.11	0.870306	2.151863
280.63	0.871307	2.151108
281.15	0.868195	2.145538
281.67	0.868423	2.145538
282.19	0.869110	2.148972
282.71	0.866455	2.152290
283.23	0.862976	2.148209
283.75	0.863663	2.145615
284.27	0.863113	2.146111
284.79	0.861465	2.151299
285.31	0.863571	2.153206
285.83	0.861099	2.147293
286.35	0.863022	2.144127
286.87	0.862061	2.148056
287.39	0.862701	2.152252
287.91	0.862610	2.151909
288.43	0.866409	2.148094
288.95	0.867050	2.146149
289.47	0.867737	2.151375
289.99	0.870804	2.152977
290.51	0.871902	2.149773
291.03	0.871948	2.145081
291.55	0.875381	2.146721
292.07	0.874878	2.150383
292.59	0.875748	2.152824
293.11	0.875610	2.146797
293.63	0.875381	2.144051
294.15	0.877533	2.150116
294.67	0.874924	2.151642
295.19	0.874649	2.151489
295.71	0.874146	2.146721
296.23	0.871582	2.144089
296.75	0.859406	2.150459
297.27	0.859360	2.152100
297.79	0.863708	2.148285
298.31	0.866776	2.145767
298.83	0.869614	2.147293
299.35	0.869156	2.150993
299.87	0.870850	2.153625
300.39	0.868744	2.149315
300.91	0.869797	2.144432
301.43	0.869843	2.147217
301.95	0.864624	2.151337
302.47	0.866364	2.151680
302.99	0.866409	2.149277
303.51	0.862747	2.145042
304.03	0.862152	2.148018
304.55	0.862747	2.153625
305.07	0.862152	2.151794
305.59	0.860687	2.147865
306.11	0.861328	2.146835
306.63	0.861832	2.149658
307.15	0.861237	2.152061
307.67	0.860641	2.149086
308.19	0.862564	2.146492
308.71	0.862381	2.145462
309.23	0.862930	2.150154
309.75	0.861694	2.152863
310.27	0.863205	2.150497
310.79	0.863434	2.145500
311.31	0.867096	2.146149
311.83	0.864258	2.150574
312.35	0.865585	2.153740
312.87	0.869843	2.149811
313.39	0.875153	2.116089
313.91	0.884033	2.033882
314.43	0.900284	1.944160
314.96	0.880646	1.842880
315.48	0.909531	1.760826
316.00	0.918640	1.688538
316.53	0.933701	1.619034
317.05	0.952057	1.561470
317.58	0.969360	1.490746
318.10	0.966660	1.425514
318.62	0.981308	1.360931
319.15	1.007126	1.307526
319.67	1.035507	1.263046
320.20	1.056381	1.230240
320.72	1.069748	1.194725
321.25	1.087051	1.172104
321.77	1.117126	1.152573
322.29	1.140106	1.136169
322.81	1.168030	1.125374
323.33	1.186386	1.121025
323.85	1.216187	1.116714
324.38	1.251846	1.109657
324.90	1.283981	1.106567
325.42	1.298904	1.102142
325.94	1.323807	1.101990
326.47	1.334198	1.098366
326.99	1.343811	1.097527
327.51	1.384460	1.097031
328.03	1.407532	1.094933
328.55	1.335892	1.091995
329.07	1.477478	1.090202
329.59	1.499496	1.091576
330.11	1.484848	1.091690
330.63	1.569672	1.088142
331.15	1.595352	1.086273
331.67	1.617325	1.086388
332.19	1.640671	1.086731
332.71	1.359833	1.085548
333.23	1.591873	1.082916
333.75	1.614349	1.081314
334.27	1.631790	1.082840
334.79	1.543396	1.083984
335.31	1.709198	1.081161
335.83	1.732910	1.079216
336.35	1.756073	1.078110
336.87	1.773422	1.079483
337.39	1.792877	1.079903
337.91	1.787659	1.077766
338.43	1.785370	1.076927
338.95	1.835083	1.076508
339.47	1.853989	1.079216
339.99	1.876556	1.076927
340.51	1.889511	1.073799
341.03	1.902924	1.073799
341.56	1.931992	1.075249
342.08	1.936844	1.072807
342.60	1.955429	1.072807
343.12	1.965042	1.074181
343.64	1.894180	1.073914
344.16	2.036682	1.071968
344.68	2.059158	1.069984
345.20	2.081497	1.071167
345.72	2.099899	1.072578
346.24	2.122971	1.070900
346.76	2.138947	1.069298
347.28	2.122650	1.068459
347.80	2.175888	1.069641
348.32	2.193741	1.069603
348.84	2.209946	1.067505
349.36	2.222626	1.067123
349.88	2.238190	1.067505
350.40	2.254623	1.068001
350.92	2.266022	1.067734
351.44	2.281586	1.065254
351.96	2.291702	1.063843
352.48	2.306992	1.067352
353.00	2.311707	1.068153
353.52	2.326950	1.067123
354.04	2.337845	1.064186
354.56	2.352859	1.063080
355.08	2.367874	1.065292
355.60	2.383942	1.065941
356.12	2.391083	1.062622
#356.64	1.177139	1.061440
#357.16	-0.000504	1.063156
#357.69	1.689926	1.062393
#358.21	2.521179	1.061668
