Time (S)	Lockin (mV)	Temp (V)
45.79	0.066895	0.960693
46.31	0.045883	0.982246
46.83	0.045914	0.979156
47.36	0.045869	0.981408
47.89	0.046431	0.979818
48.41	0.046668	0.978856
48.94	0.046964	0.980262
49.47	0.046668	0.979004
50.00	0.045824	0.978042
50.53	0.045366	0.981223
51.05	0.045691	0.980373
51.58	0.046446	0.978338
52.11	0.045173	0.980003
52.64	0.045987	0.981815
53.17	0.046239	0.977376
53.70	0.045247	0.979300
54.22	0.047058	0.977745
54.74	0.045632	0.979559
55.26	0.046738	0.978546
55.78	0.046173	0.977898
56.30	0.046494	0.979958
56.82	0.046860	0.980759
57.34	0.046417	0.978699
57.86	0.045654	0.977135
58.38	0.046097	0.978127
58.90	0.045609	0.979843
59.42	0.044876	0.981293
59.94	0.045853	0.979347
60.46	0.045151	0.978088
60.98	0.045120	0.978546
61.50	0.045807	0.980148
62.02	0.045670	0.980759
62.54	0.046143	0.979004
63.06	0.046402	0.976944
63.58	0.046082	0.980110
64.10	0.045853	0.980110
64.62	0.045868	0.980988
65.14	0.046646	0.978470
65.66	0.046249	0.979271
66.18	0.046387	0.978241
66.70	0.046646	0.979424
67.22	0.047028	0.979996
67.74	0.047073	0.980339
68.26	0.047180	0.977249
68.78	0.047546	0.980988
69.30	0.047195	0.981369
69.82	0.046890	0.978737
70.34	0.046967	0.978165
70.86	0.046097	0.978241
71.38	0.046417	0.978622
71.90	0.045868	0.981407
72.42	0.046051	0.979195
72.94	0.046982	0.977821
73.46	0.046906	0.976868
73.98	0.046631	0.979462
74.50	0.047394	0.979424
75.02	0.047379	0.978622
75.54	0.047058	0.976715
76.06	0.047256	0.978966
76.58	0.046875	0.982666
77.10	0.046509	0.977859
77.62	0.046722	0.975990
78.14	0.047791	0.977097
78.66	0.047379	0.979614
79.18	0.047821	0.980186
79.70	0.047302	0.978928
80.22	0.047485	0.976562
80.74	0.047592	0.976677
81.26	0.047592	0.979614
81.78	0.048019	0.980949
82.30	0.046448	0.977516
82.82	0.046249	0.975952
83.34	0.045715	0.976562
83.86	0.046722	0.980339
84.38	0.046799	0.978470
84.90	0.046722	0.975609
85.42	0.047104	0.975304
85.94	0.046631	0.976868
86.46	0.046509	0.980682
86.98	0.047012	0.978279
87.50	0.047363	0.976524
88.02	0.046982	0.975876
88.54	0.046600	0.978317
89.06	0.046890	0.978928
89.58	0.046585	0.976105
90.10	0.047241	0.976448
90.62	0.047333	0.975266
91.14	0.047516	0.978889
91.66	0.047546	0.977631
92.18	0.046829	0.974770
92.70	0.047150	0.976257
93.22	0.047668	0.975189
93.74	0.047455	0.978394
94.26	0.047028	0.975380
94.78	0.052628	0.975380
95.30	0.059509	0.975533
95.82	0.057343	0.976219
96.34	0.055481	0.976906
96.86	0.055359	0.977631
97.38	0.055618	0.973892
97.90	0.053314	0.974312
98.42	0.055420	0.976486
98.94	0.054520	0.977325
99.46	0.048203	0.976257
99.98	0.050262	0.972443
100.50	0.049744	0.974731
101.02	0.049927	0.977211
101.54	0.048965	0.974922
102.06	0.050125	0.973511
102.58	0.049637	0.973892
103.10	0.050797	0.974274
103.62	0.050461	0.976715
104.14	0.050308	0.975571
104.66	0.049301	0.973282
105.18	0.049118	0.973663
105.70	0.048737	0.976067
106.22	0.048157	0.975075
106.74	0.048370	0.975418
107.26	0.048523	0.973129
107.78	0.048462	0.974541
108.30	0.048004	0.975838
108.82	0.046829	0.976219
109.34	0.046417	0.973282
109.86	0.046783	0.973740
110.38	0.046219	0.974197
110.90	0.046280	0.977821
111.42	0.046051	0.975075
111.94	0.046524	0.972786
112.46	0.047745	0.972748
112.98	0.047165	0.974388
113.50	0.047211	0.977173
114.02	0.047256	0.973969
114.54	0.047165	0.973434
115.06	0.047836	0.972595
115.58	0.047470	0.975647
116.10	0.047211	0.975266
116.62	0.046463	0.972023
117.14	0.046295	0.972099
117.66	0.045807	0.971527
118.18	0.045837	0.974808
118.70	0.046951	0.975838
119.22	0.046906	0.971642
119.74	0.046783	0.971718
120.26	0.047333	0.973206
120.78	0.046539	0.974045
121.30	0.047089	0.973434
121.82	0.046997	0.972977
122.34	0.046768	0.971298
122.86	0.046967	0.972328
123.38	0.046936	0.974312
123.90	0.047256	0.972672
124.42	0.047287	0.970955
124.94	0.046936	0.970840
125.46	0.047180	0.973778
125.98	0.047882	0.973015
126.50	0.047165	0.971222
127.02	0.047668	0.970764
127.54	0.046448	0.970497
128.06	0.046188	0.972404
128.58	0.045868	0.974159
129.10	0.046112	0.970764
129.62	0.046310	0.968208
130.14	0.045822	0.970497
130.66	0.046783	0.973358
131.18	0.047043	0.972748
131.70	0.047272	0.969009
132.22	0.047821	0.969620
132.74	0.047791	0.970917
133.26	0.047241	0.972137
133.78	0.047562	0.970459
134.30	0.047134	0.970497
134.83	0.047562	0.968513
135.34	0.047363	0.970001
135.86	0.047516	0.972214
136.38	0.047684	0.970421
136.90	0.047989	0.968590
137.42	0.047592	0.968361
137.94	0.047562	0.968933
138.46	0.047836	0.973587
138.98	0.046738	0.971832
139.50	0.046661	0.968781
140.02	0.046600	0.968933
140.54	0.046112	0.970497
141.06	0.046310	0.970535
141.58	0.046707	0.966034
142.10	0.046906	0.967331
142.62	0.047485	0.966225
143.14	0.046570	0.971565
143.66	0.046768	0.968018
144.18	0.047165	0.967522
144.70	0.047180	0.965843
145.22	0.047089	0.968208
145.74	0.046631	0.970497
146.26	0.046753	0.969734
146.78	0.047089	0.967369
147.30	0.046402	0.965652
147.82	0.047348	0.967026
148.34	0.047073	0.968475
148.86	0.047409	0.969620
149.38	0.047775	0.967064
149.90	0.047211	0.965576
150.42	0.047607	0.968018
150.94	0.046326	0.967026
151.46	0.046097	0.966682
151.98	0.045853	0.967407
152.50	0.045364	0.967598
153.02	0.045975	0.967789
153.54	0.046356	0.969086
154.06	0.046768	0.967789
154.58	0.047104	0.966148
155.10	0.046616	0.966301
155.62	0.047516	0.966072
156.14	0.047318	0.968971
156.66	0.046921	0.965538
157.18	0.047119	0.964546
157.70	0.047119	0.962944
158.22	0.046844	0.964470
158.74	0.047119	0.968742
159.26	0.047211	0.967026
159.78	0.047272	0.964851
160.30	0.047363	0.965195
160.82	0.046631	0.966644
161.34	0.047348	0.966606
161.86	0.047455	0.969620
162.38	0.046570	0.965424
162.90	0.046494	0.963783
163.42	0.045807	0.963326
163.94	0.047028	0.965347
164.46	0.047195	0.967522
164.98	0.047379	0.961609
165.50	0.048096	0.962601
166.02	0.047577	0.966377
166.54	0.047836	0.964165
167.06	0.047241	0.966377
167.58	0.046524	0.965309
168.10	0.046280	0.960541
168.62	0.046814	0.964470
169.14	0.046921	0.966454
169.66	0.047974	0.964737
170.18	0.047821	0.957565
170.70	0.047745	0.963745
171.22	0.048386	0.964279
171.74	0.048904	0.963745
172.26	0.047836	0.960388
172.78	0.047729	0.965004
173.30	0.047638	0.963974
173.82	0.046890	0.961990
174.34	0.046799	0.966568
174.86	0.047470	0.966339
175.38	0.047394	0.964050
175.90	0.047546	0.957794
176.42	0.048004	0.954590
176.94	0.047852	0.961876
177.46	0.048401	0.964622
177.98	0.048416	0.963821
178.50	0.049133	0.961189
179.02	0.048569	0.963974
179.54	0.048035	0.960312
180.06	0.048035	0.961456
180.58	0.048050	0.963211
181.10	0.048187	0.958977
181.62	0.049026	0.955849
182.14	0.049240	0.961075
182.66	0.049576	0.961075
183.18	0.049194	0.957184
183.70	0.049438	0.956841
184.22	0.049011	0.956726
184.74	0.048920	0.962601
185.26	0.049057	0.958672
185.78	0.048965	0.961494
186.30	0.049164	0.958748
186.82	0.048889	0.957222
187.34	0.049805	0.957794
187.86	0.049271	0.957298
188.38	0.049484	0.955734
188.90	0.050156	0.954094
189.42	0.049911	0.953712
189.94	0.050049	0.953369
190.46	0.049377	0.956726
190.98	0.049438	0.954666
191.50	0.049515	0.954742
192.02	0.049164	0.955353
192.54	0.050018	0.957222
193.06	0.050552	0.954895
193.58	0.050308	0.953751
194.10	0.050980	0.951691
194.62	0.050766	0.954666
195.14	0.050507	0.952873
195.66	0.050568	0.954323
196.18	0.050415	0.950432
196.70	0.049866	0.955887
197.22	0.049927	0.951195
197.74	0.049210	0.950851
198.26	0.049286	0.954666
198.78	0.049500	0.951500
199.30	0.050064	0.950012
199.82	0.050064	0.950737
200.34	0.049606	0.949249
200.86	0.050400	0.954323
201.38	0.050064	0.952644
201.90	0.050613	0.947456
202.42	0.050369	0.943985
202.94	0.050476	0.948677
203.46	0.050797	0.950813
203.98	0.050461	0.951500
204.50	0.051086	0.949478
205.02	0.051529	0.946808
205.54	0.050735	0.951309
206.06	0.051514	0.952034
206.58	0.051697	0.950203
207.10	0.050858	0.945663
207.62	0.050522	0.950623
208.14	0.050705	0.947304
208.66	0.050201	0.949898
209.18	0.050369	0.949364
209.70	0.049820	0.946426
210.22	0.050568	0.944557
210.74	0.051712	0.945091
211.26	0.051285	0.947456
211.78	0.051315	0.947952
212.30	0.051910	0.944443
212.82	0.051727	0.942535
213.34	0.052307	0.943108
213.86	0.051727	0.943947
214.38	0.050842	0.948830
214.90	0.051178	0.943298
215.42	0.051819	0.939445
215.94	0.052368	0.941200
216.46	0.051559	0.947304
216.98	0.052292	0.945969
217.50	0.051865	0.945206
218.03	0.050980	0.942993
218.56	0.051651	0.941544
219.08	0.051880	0.943222
219.60	0.051926	0.942917
220.12	0.051956	0.944252
220.64	0.051559	0.940285
221.16	0.052063	0.941048
221.68	0.052597	0.941429
222.20	0.052704	0.944099
222.72	0.052704	0.941696
223.24	0.052094	0.942345
223.76	0.052017	0.939217
224.28	0.051483	0.943527
224.80	0.051971	0.942383
225.32	0.051407	0.941963
225.84	0.051468	0.936623
226.36	0.050919	0.938110
226.88	0.051590	0.937462
227.40	0.051437	0.941544
227.92	0.052292	0.938530
228.44	0.052567	0.935364
228.96	0.053299	0.937004
229.48	0.052353	0.941048
230.00	0.052979	0.943184
230.52	0.052826	0.940590
231.04	0.053345	0.938721
231.56	0.053360	0.934525
232.08	0.052750	0.935249
232.60	0.053589	0.938873
233.12	0.053284	0.940018
233.64	0.054230	0.935020
234.16	0.053986	0.933571
234.68	0.053543	0.935516
235.20	0.053696	0.935097
235.72	0.052841	0.935478
236.24	0.052612	0.934944
236.76	0.052917	0.932198
237.28	0.053116	0.934677
237.80	0.053345	0.934639
238.32	0.053329	0.934906
238.84	0.053513	0.935097
239.36	0.054184	0.932045
239.88	0.053467	0.932693
240.40	0.053543	0.932922
240.92	0.054016	0.927773
241.44	0.053528	0.930519
241.96	0.053452	0.933456
242.48	0.053253	0.935478
243.00	0.053360	0.938873
243.52	0.053452	0.932732
244.04	0.053711	0.933456
244.56	0.054504	0.931931
245.08	0.054459	0.933990
245.60	0.054337	0.934715
246.12	0.054428	0.926361
246.64	0.053970	0.930824
247.16	0.053558	0.929832
247.68	0.053116	0.930481
248.20	0.053314	0.928764
248.72	0.053619	0.926399
249.24	0.053238	0.924530
249.76	0.054138	0.931740
250.28	0.054489	0.935860
250.80	0.054443	0.930748
251.32	0.055344	0.928612
251.84	0.054672	0.929184
252.36	0.055298	0.932770
252.88	0.054413	0.932808
253.40	0.053818	0.932198
253.92	0.054062	0.925674
254.44	0.054565	0.926018
254.96	0.055405	0.928497
255.48	0.054398	0.926247
256.00	0.055206	0.928688
256.52	0.054565	0.926552
257.04	0.055298	0.924568
257.56	0.055252	0.927162
258.08	0.054703	0.933495
258.60	0.054947	0.928040
259.12	0.054306	0.926628
259.64	0.054764	0.927620
260.16	0.054337	0.925903
260.68	0.054687	0.923424
261.20	0.054108	0.930099
261.72	0.055130	0.923157
262.24	0.055328	0.924835
262.76	0.055054	0.926208
263.28	0.055771	0.925941
263.80	0.055374	0.923271
264.32	0.055756	0.922050
264.84	0.055588	0.923882
265.36	0.054794	0.927429
265.88	0.054962	0.927200
266.40	0.055466	0.921707
266.92	0.055450	0.924797
267.44	0.056091	0.920868
267.96	0.056015	0.925980
268.48	0.056366	0.926132
269.00	0.056274	0.928154
269.52	0.056137	0.922737
270.04	0.055634	0.922623
270.56	0.055145	0.922585
271.08	0.054947	0.923843
271.60	0.054276	0.921707
272.12	0.054581	0.920105
272.64	0.055038	0.918312
273.16	0.055344	0.921745
273.68	0.055450	0.921707
274.20	0.056274	0.918350
274.72	0.056152	0.918922
275.24	0.056534	0.918159
275.76	0.056183	0.917664
276.28	0.055939	0.920296
276.80	0.055756	0.918159
277.32	0.055695	0.917282
277.84	0.056244	0.912819
278.36	0.056259	0.918503
278.88	0.056473	0.919189
279.40	0.057114	0.917549
279.92	0.057434	0.917702
280.44	0.057510	0.919228
280.96	0.057327	0.916786
281.48	0.056854	0.916367
282.00	0.056595	0.920143
282.52	0.056061	0.911674
283.04	0.055634	0.913467
283.56	0.055481	0.917358
284.08	0.054993	0.917625
284.60	0.055786	0.912132
285.12	0.057114	0.920639
285.64	0.056900	0.912361
286.16	0.057602	0.916176
286.68	0.057541	0.917778
287.20	0.057480	0.917358
287.72	0.057220	0.916405
288.24	0.057129	0.914879
288.76	0.057404	0.910416
289.28	0.057556	0.918465
289.80	0.057663	0.913315
290.32	0.057953	0.914459
290.84	0.057281	0.910683
291.36	0.058395	0.917206
291.88	0.057877	0.910072
292.40	0.058563	0.914574
292.92	0.057678	0.913467
293.44	0.057587	0.910645
293.96	0.057388	0.913544
294.48	0.058044	0.917053
295.00	0.057831	0.914459
295.52	0.057098	0.910721
296.04	0.057312	0.910645
296.56	0.057556	0.912933
297.08	0.058105	0.915489
297.60	0.057846	0.916290
298.12	0.058548	0.909576
298.64	0.058884	0.903282
299.16	0.058594	0.908585
299.68	0.057678	0.905991
300.20	0.057541	0.913162
300.72	0.057846	0.905304
301.24	0.057587	0.906944
301.76	0.058044	0.911484
302.28	0.057861	0.908699
302.80	0.058640	0.913696
303.32	0.058731	0.910263
303.84	0.058960	0.909653
304.36	0.058838	0.911636
304.88	0.059082	0.905647
305.40	0.058258	0.912094
305.92	0.058289	0.907860
306.44	0.056808	0.906258
306.96	0.057465	0.906105
307.48	0.056686	0.908546
308.00	0.056656	0.915337
308.52	0.057434	0.908279
309.04	0.057724	0.908089
309.56	0.057922	0.903702
310.08	0.057922	0.909615
310.60	0.057861	0.906677
311.12	0.057205	0.908012
311.64	0.057343	0.904846
312.16	0.057327	0.901299
312.68	0.058075	0.902557
313.20	0.057861	0.907898
313.72	0.058945	0.909271
314.24	0.059204	0.904465
314.76	0.058975	0.900192
315.28	0.059402	0.904732
315.80	0.059128	0.908470
316.32	0.059189	0.905380
316.84	0.058151	0.904007
317.36	0.058105	0.900269
317.88	0.057480	0.900612
318.40	0.057251	0.901070
318.92	0.057251	0.906219
319.44	0.058167	0.905724
319.96	0.058212	0.901070
320.48	0.058701	0.902290
321.00	0.058411	0.900955
321.52	0.058350	0.902596
322.04	0.058365	0.901451
322.56	0.058121	0.904732
323.08	0.057724	0.901527
323.60	0.058044	0.898132
324.12	0.057709	0.901871
324.64	0.058121	0.904961
325.16	0.057907	0.896530
325.68	0.058121	0.893326
326.20	0.059006	0.901222
326.72	0.058594	0.906258
327.24	0.059235	0.899162
327.76	0.059219	0.904236
328.28	0.058655	0.900841
328.80	0.058044	0.904617
329.32	0.058029	0.899620
329.84	0.056946	0.904427
330.36	0.057251	0.901031
330.88	0.057602	0.903091
331.40	0.057755	0.897408
331.92	0.057846	0.897903
332.44	0.058945	0.902557
332.96	0.058975	0.899544
333.48	0.059601	0.896339
334.00	0.059128	0.896873
334.52	0.059982	0.897865
335.04	0.059143	0.899773
335.56	0.059174	0.901871
336.08	0.059357	0.897026
336.60	0.060379	0.894623
337.12	0.059906	0.894623
337.64	0.060867	0.898819
338.16	0.060394	0.900421
338.68	0.060852	0.897217
339.20	0.060730	0.894775
339.72	0.060547	0.892868
340.24	0.060257	0.898819
340.76	0.059937	0.901070
341.28	0.059647	0.897636
341.80	0.059738	0.890427
342.32	0.059860	0.893021
342.84	0.059158	0.895271
343.36	0.059387	0.896530
343.88	0.059723	0.895576
344.40	0.059601	0.890808
344.92	0.060974	0.893173
345.44	0.061005	0.893860
345.96	0.060959	0.897446
346.48	0.061081	0.894775
347.00	0.059921	0.892715
347.52	0.060028	0.890465
348.04	0.060349	0.893593
348.56	0.060760	0.893631
349.08	0.061218	0.893593
349.60	0.061066	0.891113
350.12	0.061172	0.891800
350.64	0.061722	0.887985
351.16	0.060822	0.894585
351.68	0.060898	0.893135
352.20	0.059998	0.888138
352.72	0.060059	0.890617
353.24	0.059418	0.889397
353.76	0.060379	0.890083
354.28	0.060364	0.894241
354.80	0.060623	0.889130
355.32	0.061020	0.888557
355.84	0.061050	0.890083
356.36	0.060913	0.890923
356.88	0.060959	0.896835
357.40	0.061188	0.892220
357.92	0.061020	0.891418
358.44	0.060394	0.891037
358.96	0.060318	0.890999
359.48	0.060135	0.891609
360.00	0.060791	0.883255
360.52	0.060852	0.886192
361.04	0.060791	0.891380
361.56	0.061401	0.890388
362.08	0.061600	0.887260
362.60	0.061172	0.885887
363.12	0.060959	0.887146
363.64	0.060776	0.888557
364.16	0.060486	0.892601
364.68	0.060318	0.889359
365.20	0.059906	0.885582
365.72	0.060135	0.884895
366.24	0.060501	0.883064
366.76	0.060654	0.887108
367.28	0.061722	0.888710
367.80	0.061035	0.887451
368.32	0.061066	0.885735
368.84	0.061996	0.882111
369.36	0.061188	0.889511
369.88	0.061111	0.889816
370.40	0.061050	0.884705
370.92	0.061020	0.881462
371.44	0.062988	0.888329
371.96	0.062088	0.888519
372.48	0.061707	0.885696
373.00	0.062149	0.884171
373.52	0.062943	0.884857
374.04	0.063431	0.883026
374.56	0.063110	0.888252
375.08	0.063217	0.886650
375.60	0.062134	0.881805
376.12	0.061310	0.880737
376.64	0.061172	0.883942
377.16	0.060760	0.884819
377.68	0.060745	0.887375
378.20	0.061310	0.885162
378.72	0.061279	0.881615
379.24	0.061417	0.882530
379.76	0.062225	0.883446
380.28	0.061783	0.882797
380.80	0.062241	0.882797
381.32	0.062180	0.882111
381.84	0.061813	0.885315
382.36	0.062027	0.883369
382.88	0.061142	0.882072
383.40	0.061142	0.882034
383.92	0.056213	0.881233
384.44	0.060776	0.880585
384.96	0.062180	0.880051
385.48	0.063141	0.886269
386.00	0.063171	0.880318
386.52	0.062393	0.881195
387.04	0.062103	0.872803
387.56	0.062485	0.875740
388.08	0.061996	0.880623
388.60	0.061996	0.878983
389.12	0.061630	0.870781
389.64	0.062012	0.876923
390.16	0.061951	0.874329
390.68	0.061874	0.879707
391.20	0.063065	0.877075
391.72	0.063095	0.876694
392.24	0.063095	0.875244
392.76	0.062820	0.875244
393.28	0.063141	0.877609
393.80	0.061920	0.878105
394.32	0.061188	0.874405
394.84	0.061661	0.874748
395.36	0.061188	0.874977
395.88	0.055847	0.875359
396.40	0.063553	0.875931
396.92	0.063324	0.874557
397.44	0.063293	0.871696
397.96	0.063232	0.871849
398.48	0.063965	0.875053
399.00	0.063202	0.874863
399.53	0.063324	0.870972
400.05	0.064041	0.873337
400.57	0.063721	0.874672
401.09	0.063110	0.869827
401.61	0.062744	0.869408
402.13	0.062714	0.871620
402.65	0.062836	0.872307
403.17	0.062546	0.872383
403.69	0.062607	0.869865
404.21	0.063004	0.868797
404.73	0.062317	0.868073
405.25	0.062927	0.870209
405.77	0.063690	0.870934
406.29	0.064087	0.867577
406.81	0.064240	0.866699
407.33	0.064407	0.869331
407.85	0.063400	0.867271
408.37	0.063339	0.872879
408.89	0.061768	0.867920
409.41	0.064362	0.866203
409.93	0.064590	0.865707
410.45	0.065659	0.864220
410.97	0.065796	0.870438
411.49	0.066467	0.866966
412.01	0.065964	0.864983
412.53	0.066620	0.863686
413.05	0.065628	0.864143
413.57	0.065445	0.867043
414.09	0.064804	0.865173
414.61	0.064240	0.863495
415.13	0.064911	0.862122
415.65	0.064407	0.864754
416.17	0.065384	0.865479
416.69	0.065536	0.865860
417.21	0.065704	0.861816
417.73	0.066483	0.858192
418.25	0.066544	0.861588
418.77	0.065720	0.862999
419.29	0.065413	0.863037
419.82	0.064972	0.861473
420.34	0.064087	0.860901
420.86	0.064499	0.857239
421.38	0.064621	0.859528
421.90	0.064972	0.862160
422.42	0.065796	0.861092
422.94	0.065750	0.856628
423.46	0.065796	0.857162
423.99	0.066254	0.859718
424.51	0.066360	0.856819
425.03	0.066925	0.858154
425.55	0.067154	0.858002
426.07	0.066177	0.855904
426.59	0.066299	0.855637
427.11	0.066406	0.853119
427.63	0.066223	0.853615
428.15	0.066727	0.857162
428.67	0.066116	0.856285
429.19	0.066696	0.854263
429.71	0.066437	0.852051
430.23	0.067322	0.851669
430.75	0.067474	0.854111
431.27	0.067993	0.856056
431.79	0.067184	0.854378
432.31	0.066696	0.850182
432.83	0.066528	0.849571
433.35	0.066132	0.851898
433.87	0.066177	0.854111
434.39	0.065735	0.853271
434.91	0.066116	0.848923
435.43	0.066040	0.847092
435.95	0.066711	0.849342
436.47	0.067169	0.852547
436.99	0.067230	0.850334
437.52	0.066406	0.849190
438.04	0.067215	0.851784
438.56	0.067276	0.848885
439.08	0.067841	0.847168
439.60	0.068100	0.847473
440.12	0.067596	0.848846
440.64	0.067749	0.849648
441.16	0.067413	0.847702
441.68	0.067627	0.846176
442.20	0.067245	0.845184
442.72	0.066879	0.846176
443.24	0.067245	0.849266
443.76	0.067307	0.845375
444.28	0.068054	0.841980
444.80	0.068726	0.842705
445.32	0.069107	0.843010
445.84	0.068939	0.844688
446.36	0.068985	0.844955
446.88	0.068207	0.843811
447.40	0.067535	0.840836
447.92	0.067764	0.842857
448.44	0.066803	0.844688
448.96	0.067230	0.842285
449.48	0.068146	0.841484
450.00	0.067581	0.841370
450.52	0.067673	0.838318
451.04	0.068588	0.840645
451.56	0.068192	0.841866
452.08	0.068710	0.840836
452.60	0.068756	0.838013
453.12	0.068176	0.836334
453.64	0.068115	0.840874
454.16	0.068878	0.838394
454.68	0.068878	0.838966
455.20	0.067932	0.834618
455.72	0.068314	0.835915
456.24	0.068680	0.835228
456.76	0.069473	0.837822
457.28	0.069794	0.836258
457.80	0.068970	0.835838
458.32	0.069916	0.833626
458.84	0.068832	0.835037
459.36	0.068359	0.835800
459.88	0.068695	0.835953
460.40	0.068726	0.833130
460.92	0.068817	0.831566
461.44	0.068970	0.831261
461.96	0.068771	0.834236
462.48	0.069519	0.836182
463.00	0.069504	0.832176
463.52	0.069962	0.829582
464.04	0.070374	0.830994
464.56	0.069687	0.830765
465.08	0.070251	0.832863
465.60	0.069946	0.831490
466.12	0.069010	0.829942
466.64	0.070358	0.828934
467.17	0.069336	0.831141
467.99	0.071147	0.821431
468.51	0.070404	0.831947
469.03	0.069351	0.830383
