Time (S)	Lockin (mV)	Temp (V)
7.57	27.832031	0.814209
9.10	31.101460	0.823576
10.63	31.149774	0.821597
12.15	31.334807	0.823216
13.66	31.401624	0.821251
15.18	29.879215	0.822895
16.70	31.680715	0.821430
18.23	31.479749	0.819670
19.75	31.594367	0.820004
21.27	31.560958	0.820801
22.79	31.510074	0.820839
24.31	31.680715	0.820197
25.83	31.456620	0.819657
27.35	31.604132	0.819503
28.87	31.574836	0.819914
30.39	31.529091	0.821006
31.90	31.678146	0.819477
33.42	31.491571	0.818321
34.95	31.480777	0.820248
36.48	31.502878	0.819670
38.01	31.502878	0.819799
39.54	31.489001	0.820338
41.07	31.477693	0.820685
42.59	31.480777	0.819387
44.12	31.447882	0.820415
45.65	31.446340	0.819657
47.18	31.400596	0.820621
48.70	31.348170	0.820891
50.23	31.277755	0.821122
51.76	31.175987	0.820685
53.29	31.103516	0.821713
54.82	30.935958	0.822330
56.35	30.810033	0.823975
57.87	30.622430	0.823049
59.40	30.432771	0.825799
60.93	30.212274	0.827084
62.46	29.939350	0.828331
63.99	29.674137	0.830348
65.51	29.403269	0.831556
67.04	29.118010	0.834357
68.57	28.820929	0.837878
70.10	28.475535	0.841167
71.63	28.172800	0.843480
73.15	27.739001	0.845716
74.67	27.193110	0.850791
76.19	26.529255	0.858050
77.71	25.991107	0.866543
79.23	25.499190	0.870894
80.75	24.992728	0.875309
82.28	24.174548	0.884329
83.80	23.389191	0.893685
85.32	22.361203	0.903892
86.84	21.545670	0.911891
88.36	21.042844	0.919462
89.89	20.048314	0.926437
91.41	15.858232	0.931526
92.93	18.941676	0.937903
94.46	18.258121	0.942563
95.99	17.783717	0.948589
97.51	17.120169	0.954166
99.04	16.456620	0.960089
100.57	15.758635	0.966797
102.10	15.072985	0.974314
103.62	15.058594	0.972001
105.15	15.184005	0.957494
106.68	14.829359	0.954037
108.21	14.244963	0.952765
109.74	14.008018	0.953857
111.27	13.625617	0.956620
112.79	13.232936	0.959383
114.32	12.853104	0.961811
115.85	12.466591	0.964124
117.38	12.072882	0.968737
118.90	11.446854	0.972643
120.43	11.196032	0.975663
121.96	10.809005	0.979466
123.49	10.430715	0.981869
125.02	10.038549	0.985210
126.55	9.655633	0.990042
128.07	9.275802	0.993331
129.60	8.861534	0.995323
131.13	8.445210	1.001375
132.66	7.963096	1.004305
134.19	7.304687	1.007890
135.71	7.234786	1.010845
137.24	6.734169	1.015535
138.77	6.623664	1.017154
140.30	6.274671	1.022410
141.83	5.958059	1.025031
143.35	5.601871	1.028539
144.88	5.290399	1.032162
146.41	4.928043	1.035503
147.94	4.450041	1.040065
149.47	4.210012	1.043174
150.99	3.912418	1.046785
152.52	3.626131	1.051385
154.05	3.334190	1.053788
155.58	3.044819	1.058273
157.10	2.773951	1.062911
158.63	2.534437	1.067781
160.16	2.290810	1.071135
161.69	2.051295	1.076429
163.22	1.870374	1.081710
164.75	1.684313	1.088379
166.27	1.497225	1.096860
167.80	1.366160	1.112767
169.33	1.230983	1.162148
170.86	1.139494	1.356625
172.38	1.070107	1.749666
173.91	1.057257	2.176205
175.44	1.075761	2.391704
176.97	1.056229	2.431011
178.50	1.071135	2.435663
180.03	1.056743	2.438053
181.55	1.057771	2.436858
183.08	1.071649	2.437204
184.61	1.058285	2.440468
186.14	1.069593	2.435663
187.67	1.048006	2.435842
189.19	3.178968	2.437847
190.72	2.987253	2.436035
192.25	2.987253	2.436433
193.78	0.895251	2.435444
195.31	0.894634	2.434840
196.83	0.898951	2.433324
198.36	1.844161	2.433928
199.89	5.870940	2.436523
201.42	8.530479	2.432591
202.95	8.515060	2.433915
204.47	0.851691	2.431769
206.00	0.849964	2.432656
207.53	0.848623	2.433542
209.06	0.848653	2.433786
210.59	0.848777	2.432810
212.11	0.849656	2.433555
213.64	0.850118	2.430613
215.17	0.849131	2.432437
216.70	0.848669	2.433478
218.23	0.848808	2.429842
219.75	0.848746	2.431127
221.28	0.848268	2.431833
222.81	0.846988	2.431037
224.34	0.847034	2.431653
225.86	0.846711	2.434211
227.39	0.848098	2.428685
228.92	0.848499	2.432283
230.45	0.849101	2.433337
231.98	0.848576	2.429957
233.51	0.849162	2.432193
235.03	0.848607	2.433478
236.56	0.848314	2.431384
238.09	0.849671	2.429508
239.62	0.847404	2.402459
241.14	0.849301	2.191843
242.67	0.848037	1.991481
244.20	0.858506	1.813644
245.73	0.881821	1.616751
247.26	0.927030	1.394852
248.79	0.977405	1.246248
250.31	1.062104	1.159424
251.84	1.174974	1.118370
253.37	1.284699	1.103978
254.90	1.403459	1.094714
256.43	1.517547	1.089098
257.95	1.606456	1.085025
259.48	1.718801	1.081003
261.01	1.887783	1.078228
262.54	2.053295	1.073371
264.07	2.217820	1.070595
265.59	2.376470	1.068629
267.12	2.534550	1.066638
268.65	2.654729	1.061215
270.18	2.743683	1.059288
271.71	2.817265	1.057836
273.23	2.877477	1.054842
274.76	2.925756	1.052850
276.29	2.964859	1.051372
277.82	2.987202	1.047453
279.34	2.995575	1.047273
280.87	2.995605	1.044408
282.40	2.995605	1.043239
283.93	2.995605	1.041722
285.46	2.995605	1.038202
286.99	2.498453	1.037482
288.51	1.409858	1.036300
290.04	1.478428	1.033190
291.57	1.518133	1.032805
293.10	1.558717	1.031211
294.62	1.596572	1.029438
296.15	5.446032	1.029837
297.68	5.574887	1.028128
299.21	5.690635	1.027087
300.74	5.821752	1.025519
302.27	5.946083	1.023437
303.79	6.068154	1.022538
305.32	6.226614	1.022242
306.85	6.349147	1.019467
308.38	6.489206	1.017681
309.91	6.626542	1.016512
311.43	6.754934	1.016165
312.96	6.890471	1.013325
314.49	7.009611	1.013556
316.02	7.141910	1.011642
317.55	7.276881	1.010973
319.07	7.393452	1.009804
320.60	7.521844	1.007556
322.13	7.651933	1.007376
323.66	7.748715	1.006797
325.19	7.892887	1.004536
326.71	8.006785	1.004549
328.24	8.128444	1.002891
329.77	8.230983	1.000758
331.30	8.362870	1.001169
332.83	8.466900	0.999499
334.35	8.578331	0.998304
335.88	8.671155	0.996094
337.41	8.767938	0.994860
338.94	8.848273	0.994359
340.47	8.925884	0.993729
341.99	8.995580	0.993678
343.52	9.051347	0.991314
345.05	8.751182	0.991686
346.58	9.261051	0.990556
348.10	9.316663	0.989399
349.63	9.364361	0.987163
351.16	9.413446	0.987228
352.69	6.285979	0.987086
354.22	3.193719	0.984529
355.75	3.040450	0.984529
357.27	2.909951	0.984208
358.80	9.768966	0.982358
360.33	10.155685	0.980045
